#! FIELDS arg f0(s) f1(s) f2(s) f3(s) f4(s)
#! SET bf_keywords {BF_CUSTOM MINIMUM=0.00001 MAXIMUM=4.0 FUNC1=x FUNC2=x^2 FUNC3=x^3 FUNC4=x^4 TRANSFORM=abs(t) CHECK_NAN_INF}
#! SET min 0.00001
#! SET max 4.0
#! SET nbins  301
#! SET periodic false
       0.0000       1.0000       0.0000       0.0000       0.0000       0.0000
       0.0133       1.0000       0.0133       0.0002       0.0000       0.0000
       0.0267       1.0000       0.0267       0.0007       0.0000       0.0000
       0.0400       1.0000       0.0400       0.0016       0.0001       0.0000
       0.0533       1.0000       0.0533       0.0028       0.0002       0.0000
       0.0667       1.0000       0.0667       0.0044       0.0003       0.0000
       0.0800       1.0000       0.0800       0.0064       0.0005       0.0000
       0.0933       1.0000       0.0933       0.0087       0.0008       0.0001
       0.1067       1.0000       0.1067       0.0114       0.0012       0.0001
       0.1200       1.0000       0.1200       0.0144       0.0017       0.0002
       0.1333       1.0000       0.1333       0.0178       0.0024       0.0003
       0.1467       1.0000       0.1467       0.0215       0.0032       0.0005
       0.1600       1.0000       0.1600       0.0256       0.0041       0.0007
       0.1733       1.0000       0.1733       0.0300       0.0052       0.0009
       0.1867       1.0000       0.1867       0.0348       0.0065       0.0012
       0.2000       1.0000       0.2000       0.0400       0.0080       0.0016
       0.2133       1.0000       0.2133       0.0455       0.0097       0.0021
       0.2267       1.0000       0.2267       0.0514       0.0116       0.0026
       0.2400       1.0000       0.2400       0.0576       0.0138       0.0033
       0.2533       1.0000       0.2533       0.0642       0.0163       0.0041
       0.2667       1.0000       0.2667       0.0711       0.0190       0.0051
       0.2800       1.0000       0.2800       0.0784       0.0220       0.0061
       0.2933       1.0000       0.2933       0.0860       0.0252       0.0074
       0.3067       1.0000       0.3067       0.0941       0.0288       0.0088
       0.3200       1.0000       0.3200       0.1024       0.0328       0.0105
       0.3333       1.0000       0.3333       0.1111       0.0370       0.0123
       0.3467       1.0000       0.3467       0.1202       0.0417       0.0144
       0.3600       1.0000       0.3600       0.1296       0.0467       0.0168
       0.3733       1.0000       0.3733       0.1394       0.0520       0.0194
       0.3867       1.0000       0.3867       0.1495       0.0578       0.0224
       0.4000       1.0000       0.4000       0.1600       0.0640       0.0256
       0.4133       1.0000       0.4133       0.1709       0.0706       0.0292
       0.4267       1.0000       0.4267       0.1821       0.0777       0.0331
       0.4400       1.0000       0.4400       0.1936       0.0852       0.0375
       0.4533       1.0000       0.4533       0.2055       0.0932       0.0422
       0.4667       1.0000       0.4667       0.2178       0.1016       0.0474
       0.4800       1.0000       0.4800       0.2304       0.1106       0.0531
       0.4933       1.0000       0.4933       0.2434       0.1201       0.0592
       0.5067       1.0000       0.5067       0.2567       0.1301       0.0659
       0.5200       1.0000       0.5200       0.2704       0.1406       0.0731
       0.5333       1.0000       0.5333       0.2845       0.1517       0.0809
       0.5467       1.0000       0.5467       0.2989       0.1634       0.0893
       0.5600       1.0000       0.5600       0.3136       0.1756       0.0984
       0.5733       1.0000       0.5733       0.3287       0.1885       0.1081
       0.5867       1.0000       0.5867       0.3442       0.2019       0.1185
       0.6000       1.0000       0.6000       0.3600       0.2160       0.1296
       0.6133       1.0000       0.6133       0.3762       0.2307       0.1415
       0.6267       1.0000       0.6267       0.3927       0.2461       0.1542
       0.6400       1.0000       0.6400       0.4096       0.2622       0.1678
       0.6533       1.0000       0.6533       0.4269       0.2789       0.1822
       0.6667       1.0000       0.6667       0.4445       0.2963       0.1975
       0.6800       1.0000       0.6800       0.4624       0.3144       0.2138
       0.6933       1.0000       0.6933       0.4807       0.3333       0.2311
       0.7067       1.0000       0.7067       0.4994       0.3529       0.2494
       0.7200       1.0000       0.7200       0.5184       0.3733       0.2688
       0.7333       1.0000       0.7333       0.5378       0.3944       0.2892
       0.7467       1.0000       0.7467       0.5575       0.4163       0.3108
       0.7600       1.0000       0.7600       0.5776       0.4390       0.3336
       0.7733       1.0000       0.7733       0.5981       0.4625       0.3577
       0.7867       1.0000       0.7867       0.6189       0.4868       0.3830
       0.8000       1.0000       0.8000       0.6400       0.5120       0.4096
       0.8133       1.0000       0.8133       0.6615       0.5380       0.4376
       0.8267       1.0000       0.8267       0.6834       0.5649       0.4670
       0.8400       1.0000       0.8400       0.7056       0.5927       0.4979
       0.8533       1.0000       0.8533       0.7282       0.6214       0.5303
       0.8667       1.0000       0.8667       0.7511       0.6510       0.5642
       0.8800       1.0000       0.8800       0.7744       0.6815       0.5997
       0.8933       1.0000       0.8933       0.7981       0.7129       0.6369
       0.9067       1.0000       0.9067       0.8221       0.7453       0.6758
       0.9200       1.0000       0.9200       0.8464       0.7787       0.7164
       0.9333       1.0000       0.9333       0.8711       0.8131       0.7589
       0.9467       1.0000       0.9467       0.8962       0.8484       0.8032
       0.9600       1.0000       0.9600       0.9216       0.8848       0.8494
       0.9733       1.0000       0.9733       0.9474       0.9221       0.8976
       0.9867       1.0000       0.9867       0.9735       0.9606       0.9478
       1.0000       1.0000       1.0000       1.0000       1.0000       1.0000
       1.0133       1.0000       1.0133       1.0269       1.0406       1.0544
       1.0267       1.0000       1.0267       1.0541       1.0822       1.1110
       1.0400       1.0000       1.0400       1.0816       1.1249       1.1699
       1.0533       1.0000       1.0533       1.1095       1.1687       1.2310
       1.0667       1.0000       1.0667       1.1378       1.2137       1.2946
       1.0800       1.0000       1.0800       1.1664       1.2597       1.3605
       1.0933       1.0000       1.0933       1.1954       1.3070       1.4290
       1.1067       1.0000       1.1067       1.2247       1.3554       1.5000
       1.1200       1.0000       1.1200       1.2544       1.4050       1.5736
       1.1333       1.0000       1.1333       1.2845       1.4557       1.6498
       1.1467       1.0000       1.1467       1.3149       1.5077       1.7289
       1.1600       1.0000       1.1600       1.3456       1.5609       1.8107
       1.1733       1.0000       1.1733       1.3767       1.6154       1.8954
       1.1867       1.0000       1.1867       1.4082       1.6711       1.9830
       1.2000       1.0000       1.2000       1.4400       1.7280       2.0736
       1.2133       1.0000       1.2133       1.4722       1.7863       2.1674
       1.2267       1.0000       1.2267       1.5047       1.8458       2.2642
       1.2400       1.0000       1.2400       1.5376       1.9067       2.3643
       1.2533       1.0000       1.2533       1.5709       1.9688       2.4676
       1.2667       1.0000       1.2667       1.6045       2.0323       2.5743
       1.2800       1.0000       1.2800       1.6384       2.0972       2.6844
       1.2933       1.0000       1.2933       1.6727       2.1634       2.7980
       1.3067       1.0000       1.3067       1.7074       2.2310       2.9152
       1.3200       1.0000       1.3200       1.7424       2.3000       3.0360
       1.3333       1.0000       1.3333       1.7778       2.3704       3.1606
       1.3467       1.0000       1.3467       1.8135       2.4422       3.2889
       1.3600       1.0000       1.3600       1.8496       2.5155       3.4211
       1.3733       1.0000       1.3733       1.8861       2.5902       3.5572
       1.3867       1.0000       1.3867       1.9229       2.6664       3.6974
       1.4000       1.0000       1.4000       1.9600       2.7440       3.8417
       1.4133       1.0000       1.4133       1.9975       2.8232       3.9901
       1.4267       1.0000       1.4267       2.0354       2.9038       4.1428
       1.4400       1.0000       1.4400       2.0736       2.9860       4.2999
       1.4533       1.0000       1.4533       2.1122       3.0697       4.4614
       1.4667       1.0000       1.4667       2.1511       3.1550       4.6274
       1.4800       1.0000       1.4800       2.1904       3.2418       4.7979
       1.4933       1.0000       1.4933       2.2301       3.3302       4.9732
       1.5067       1.0000       1.5067       2.2701       3.4202       5.1532
       1.5200       1.0000       1.5200       2.3104       3.5119       5.3380
       1.5333       1.0000       1.5333       2.3511       3.6051       5.5278
       1.5467       1.0000       1.5467       2.3922       3.6999       5.7226
       1.5600       1.0000       1.5600       2.4336       3.7965       5.9225
       1.5733       1.0000       1.5733       2.4754       3.8946       6.1276
       1.5867       1.0000       1.5867       2.5175       3.9945       6.3380
       1.6000       1.0000       1.6000       2.5600       4.0960       6.5537
       1.6133       1.0000       1.6133       2.6029       4.1993       6.7749
       1.6267       1.0000       1.6267       2.6461       4.3043       7.0017
       1.6400       1.0000       1.6400       2.6896       4.4110       7.2341
       1.6533       1.0000       1.6533       2.7335       4.5195       7.4722
       1.6667       1.0000       1.6667       2.7778       4.6297       7.7162
       1.6800       1.0000       1.6800       2.8224       4.7417       7.9661
       1.6933       1.0000       1.6933       2.8674       4.8555       8.2220
       1.7067       1.0000       1.7067       2.9127       4.9711       8.4840
       1.7200       1.0000       1.7200       2.9584       5.0885       8.7522
       1.7333       1.0000       1.7333       3.0045       5.2078       9.0268
       1.7467       1.0000       1.7467       3.0509       5.3289       9.3078
       1.7600       1.0000       1.7600       3.0976       5.4518       9.5952
       1.7733       1.0000       1.7733       3.1447       5.5767       9.8893
       1.7867       1.0000       1.7867       3.1922       5.7034      10.1901
       1.8000       1.0000       1.8000       3.2400       5.8321      10.4977
       1.8133       1.0000       1.8133       3.2882       5.9626      10.8122
       1.8267       1.0000       1.8267       3.3367       6.0951      11.1338
       1.8400       1.0000       1.8400       3.3856       6.2296      11.4624
       1.8533       1.0000       1.8533       3.4349       6.3660      11.7983
       1.8667       1.0000       1.8667       3.4845       6.5044      12.1415
       1.8800       1.0000       1.8800       3.5344       6.6447      12.4921
       1.8933       1.0000       1.8933       3.5847       6.7871      12.8503
       1.9067       1.0000       1.9067       3.6354       6.9315      13.2161
       1.9200       1.0000       1.9200       3.6864       7.0779      13.5897
       1.9333       1.0000       1.9333       3.7378       7.2264      13.9711
       1.9467       1.0000       1.9467       3.7895       7.3770      14.3605
       1.9600       1.0000       1.9600       3.8416       7.5296      14.7580
       1.9733       1.0000       1.9733       3.8941       7.6843      15.1637
       1.9867       1.0000       1.9867       3.9469       7.8411      15.5777
       2.0000       1.0000       2.0000       4.0000       8.0001      16.0002
       2.0133       1.0000       2.0133       4.0535       8.1611      16.4311
       2.0267       1.0000       2.0267       4.1074       8.3243      16.8707
       2.0400       1.0000       2.0400       4.1616       8.4897      17.3191
       2.0533       1.0000       2.0533       4.2162       8.6573      17.7763
       2.0667       1.0000       2.0667       4.2711       8.8270      18.2426
       2.0800       1.0000       2.0800       4.3264       8.9990      18.7179
       2.0933       1.0000       2.0933       4.3821       9.1731      19.2025
       2.1067       1.0000       2.1067       4.4381       9.3495      19.6964
       2.1200       1.0000       2.1200       4.4944       9.5282      20.1998
       2.1333       1.0000       2.1333       4.5511       9.7091      20.7128
       2.1467       1.0000       2.1467       4.6082       9.8923      21.2355
       2.1600       1.0000       2.1600       4.6656      10.0778      21.7680
       2.1733       1.0000       2.1733       4.7234      10.2655      22.3105
       2.1867       1.0000       2.1867       4.7815      10.4556      22.8630
       2.2000       1.0000       2.2000       4.8400      10.6481      23.4258
       2.2133       1.0000       2.2133       4.8989      10.8428      23.9989
       2.2267       1.0000       2.2267       4.9581      11.0400      24.5824
       2.2400       1.0000       2.2400       5.0176      11.2395      25.1765
       2.2533       1.0000       2.2533       5.0775      11.4414      25.7813
       2.2667       1.0000       2.2667       5.1378      11.6457      26.3970
       2.2800       1.0000       2.2800       5.1984      11.8524      27.0236
       2.2933       1.0000       2.2933       5.2594      12.0616      27.6613
       2.3067       1.0000       2.3067       5.3207      12.2732      28.3102
       2.3200       1.0000       2.3200       5.3824      12.4872      28.9704
       2.3333       1.0000       2.3333       5.4445      12.7038      29.6422
       2.3467       1.0000       2.3467       5.5069      12.9228      30.3255
       2.3600       1.0000       2.3600       5.5696      13.1443      31.0207
       2.3733       1.0000       2.3733       5.6327      13.3684      31.7277
       2.3867       1.0000       2.3867       5.6962      13.5949      32.4467
       2.4000       1.0000       2.4000       5.7600      13.8241      33.1778
       2.4133       1.0000       2.4133       5.8242      14.0558      33.9213
       2.4267       1.0000       2.4267       5.8887      14.2900      34.6771
       2.4400       1.0000       2.4400       5.9536      14.5269      35.4456
       2.4533       1.0000       2.4533       6.0189      14.7663      36.2267
       2.4667       1.0000       2.4667       6.0845      15.0084      37.0207
       2.4800       1.0000       2.4800       6.1504      15.2531      37.8277
       2.4933       1.0000       2.4933       6.2167      15.5004      38.6477
       2.5067       1.0000       2.5067       6.2834      15.7504      39.4811
       2.5200       1.0000       2.5200       6.3504      16.0031      40.3278
       2.5333       1.0000       2.5333       6.4178      16.2584      41.1881
       2.5467       1.0000       2.5467       6.4855      16.5165      42.0621
       2.5600       1.0000       2.5600       6.5536      16.7773      42.9499
       2.5733       1.0000       2.5733       6.6221      17.0408      43.8517
       2.5867       1.0000       2.5867       6.6909      17.3071      44.7676
       2.6000       1.0000       2.6000       6.7600      17.5761      45.6978
       2.6133       1.0000       2.6133       6.8295      17.8479      46.6425
       2.6267       1.0000       2.6267       6.8994      18.1224      47.6017
       2.6400       1.0000       2.6400       6.9696      18.3998      48.5756
       2.6533       1.0000       2.6533       7.0402      18.6800      49.5644
       2.6667       1.0000       2.6667       7.1111      18.9630      50.5682
       2.6800       1.0000       2.6800       7.1824      19.2489      51.5871
       2.6933       1.0000       2.6933       7.2541      19.5376      52.6214
       2.7067       1.0000       2.7067       7.3261      19.8292      53.6712
       2.7200       1.0000       2.7200       7.3984      20.1237      54.7366
       2.7333       1.0000       2.7333       7.4711      20.4211      55.8178
       2.7467       1.0000       2.7467       7.5442      20.7214      56.9149
       2.7600       1.0000       2.7600       7.6176      21.0246      58.0281
       2.7733       1.0000       2.7733       7.6914      21.3308      59.1576
       2.7867       1.0000       2.7867       7.7655      21.6400      60.3034
       2.8000       1.0000       2.8000       7.8400      21.9521      61.4659
       2.8133       1.0000       2.8133       7.9149      22.2672      62.6450
       2.8267       1.0000       2.8267       7.9901      22.5853      63.8411
       2.8400       1.0000       2.8400       8.0656      22.9064      65.0542
       2.8533       1.0000       2.8533       8.1415      23.2305      66.2845
       2.8667       1.0000       2.8667       8.2178      23.5577      67.5321
       2.8800       1.0000       2.8800       8.2944      23.8879      68.7973
       2.8933       1.0000       2.8933       8.3714      24.2213      70.0802
       2.9067       1.0000       2.9067       8.4487      24.5577      71.3810
       2.9200       1.0000       2.9200       8.5264      24.8972      72.6998
       2.9333       1.0000       2.9333       8.6045      25.2398      74.0367
       2.9467       1.0000       2.9467       8.6829      25.5855      75.3921
       2.9600       1.0000       2.9600       8.7616      25.9344      76.7659
       2.9733       1.0000       2.9733       8.8407      26.2864      78.1584
       2.9867       1.0000       2.9867       8.9202      26.6417      79.5698
       3.0000       1.0000       3.0000       9.0000      27.0001      81.0003
       3.0133       1.0000       3.0133       9.0802      27.3617      82.4499
       3.0267       1.0000       3.0267       9.1607      27.7265      83.9189
       3.0400       1.0000       3.0400       9.2416      28.0945      85.4074
       3.0533       1.0000       3.0533       9.3229      28.4658      86.9157
       3.0667       1.0000       3.0667       9.4045      28.8404      88.4438
       3.0800       1.0000       3.0800       9.4864      29.2182      89.9921
       3.0933       1.0000       3.0933       9.5687      29.5993      91.5605
       3.1067       1.0000       3.1067       9.6514      29.9837      93.1494
       3.1200       1.0000       3.1200       9.7344      30.3714      94.7588
       3.1333       1.0000       3.1333       9.8178      30.7624      96.3890
       3.1467       1.0000       3.1467       9.9015      31.1568      98.0402
       3.1600       1.0000       3.1600       9.9856      31.5546      99.7125
       3.1733       1.0000       3.1733      10.0701      31.9557     101.4061
       3.1867       1.0000       3.1867      10.1549      32.3602     103.1211
       3.2000       1.0000       3.2000      10.2400      32.7681     104.8579
       3.2133       1.0000       3.2133      10.3255      33.1794     106.6164
       3.2267       1.0000       3.2267      10.4114      33.5941     108.3970
       3.2400       1.0000       3.2400      10.4976      34.0123     110.1999
       3.2533       1.0000       3.2533      10.5842      34.4339     112.0251
       3.2667       1.0000       3.2667      10.6711      34.8590     113.8729
       3.2800       1.0000       3.2800      10.7584      35.2876     115.7434
       3.2933       1.0000       3.2933      10.8461      35.7197     117.6369
       3.3067       1.0000       3.3067      10.9341      36.1553     119.5536
       3.3200       1.0000       3.3200      11.0224      36.5944     121.4936
